File: XRD_data/W6725/XRD_2ThetaOmega/W6725_absolute_2th-om_10-130deg_17min.xy
10.0035 26.0
10.4072 24.0
10.811 27.0
11.2147 22.0
11.6185 20.0
12.0222 16.0
12.426 19.0
12.8298 17.0
13.2335 22.0
13.6373 20.0
14.041 24.0
14.4448 23.0
14.8485 16.0
15.2523 25.0
15.656 25.0
16.0598 17.0
16.4636 21.0
16.8673 18.0
17.2711 15.0
17.6748 12.0
18.0786 15.0
18.4823 9.0
18.8861 21.0
19.2899 20.0
19.6936 14.0
20.0974 7.0
20.5011 14.0
20.9049 6.0
21.3086 12.0
21.7124 15.0
22.1161 12.0
22.5199 15.0
22.9237 12.0
23.3274 12.0
23.7312 13.0
24.1349 19.0
24.5387 11.0
24.9424 9.0
25.3462 11.0
25.75 13.0
26.1537 4.0
26.5575 11.0
26.9612 8.0
27.365 7.0
27.7687 5.0
28.1725 10.0
28.5762 8.0
28.98 6.0
29.3838 10.0
29.7875 9.0
30.1913 5.0
30.595 6.0
30.9988 5.0
31.4025 7.0
31.8063 5.0
32.2101 8.0
32.6138 10.0
33.0176 9.0
33.4213 5.0
33.8251 7.0
34.2288 7.0
34.6326 6.0
35.0363 7.0
35.4401 8.0
35.8439 10.0
36.2476 9.0
36.6514 3.0
37.0551 3.0
37.4589 1.0
37.8626 9.0
38.2664 7.0
38.6702 8.0
39.0739 1.0
39.4777 1.0
39.8814 5.0
40.2852 4.0
40.6889 3.0
41.0927 7.0
41.4964 4.0
41.9002 5.0
42.304 7.0
42.7077 5.0
43.1115 0.0
43.5152 3.0
43.919 3.0
44.3227 4.0
44.7265 2.0
45.1303 4.0
45.534 7.0
45.9378 7.0
46.3415 2.0
46.7453 4.0
47.149 4.0
47.5528 6.0
47.9565 5.0
48.3603 6.0
48.7641 8.0
49.1678 6.0
49.5716 6.0
49.9753 2.0
50.3791 0.0
50.7828 1.0
51.1866 4.0
51.5903 1.0
51.9941 7.0
52.3979 3.0
52.8016 5.0
53.2054 4.0
53.6091 9.0
54.0129 0.0
54.4166 6.0
54.8204 3.0
55.2242 4.0
55.6279 8.0
56.0317 4.0
56.4354 3.0
56.8392 2.0
57.2429 9.0
57.6467 9.0
58.0504 7.0
58.4542 8.0
58.858 5.0
59.2617 2.0
59.6655 1.0
60.0692 3.0
60.473 1.0
60.8767 12.0
61.2805 10.0
61.6843 8.0
62.088 6.0
62.4918 13.0
62.8955 11.0
63.2993 28.0
63.703 118.0
64.1068 735.0
64.5105 676.0
64.9143 143.0
65.3181 81.0
65.7218 30.0
66.1256 19.0
66.5293 39.0
66.9331 38.0
67.3368 77.0
67.7406 343.0
68.1444 3902.0
68.5481 135.0
68.9519 65.0
69.3556 44.0
69.7594 34.0
70.1631 12.0
70.5669 9.0
70.9706 11.0
71.3744 4.0
71.7782 8.0
72.1819 11.0
72.5857 6.0
72.9894 3.0
73.3932 5.0
73.7969 3.0
74.2007 1.0
74.6045 5.0
75.0082 6.0
75.412 1.0
75.8157 2.0
76.2195 3.0
76.6232 4.0
77.027 4.0
77.4307 2.0
77.8345 2.0
78.2383 2.0
78.642 1.0
79.0458 7.0
79.4495 6.0
79.8533 2.0
80.257 3.0
80.6608 3.0
81.0646 2.0
81.4683 2.0
81.8721 1.0
82.2758 2.0
82.6796 5.0
83.0833 7.0
83.4871 4.0
83.8908 1.0
84.2946 1.0
84.6984 1.0
85.1021 1.0
85.5059 1.0
85.9096 2.0
86.3134 1.0
86.7171 0.0
87.1209 3.0
87.5247 1.0
87.9284 2.0
88.3322 5.0
88.7359 2.0
89.1397 2.0
89.5434 1.0
89.9472 4.0
90.3509 0.0
90.7547 5.0
91.1585 0.0
91.5622 3.0
91.966 3.0
92.3697 2.0
92.7735 4.0
93.1772 1.0
93.581 0.0
93.9848 5.0
94.3885 4.0
94.7923 0.0
95.196 4.0
95.5998 2.0
96.0035 1.0
96.4073 3.0
96.811 1.0
97.2148 4.0
97.6186 3.0
98.0223 0.0
98.4261 5.0
98.8298 2.0
99.2336 4.0
99.6373 6.0
100.041 4.0
100.445 0.0
100.849 4.0
101.252 4.0
101.656 3.0
102.06 2.0
102.464 2.0
102.867 3.0
103.271 3.0
103.675 0.0
104.079 0.0
104.482 4.0
104.886 0.0
105.29 1.0
105.694 3.0
106.097 3.0
106.501 2.0
106.905 4.0
107.309 0.0
107.712 0.0
108.116 0.0
108.52 2.0
108.924 4.0
109.327 0.0
109.731 0.0
110.135 0.0
110.539 1.0
110.943 2.0
111.346 2.0
111.75 2.0
112.154 4.0
112.558 4.0
112.961 2.0
113.365 2.0
113.769 5.0
114.173 5.0
114.576 5.0
114.98 2.0
115.384 4.0
115.788 3.0
116.191 2.0
116.595 1.0
116.999 5.0
117.403 0.0
117.806 1.0
118.21 2.0
118.614 2.0
119.018 4.0
119.421 4.0
119.825 8.0
120.229 2.0
120.633 5.0
121.036 5.0
121.44 2.0
121.844 4.0
122.248 0.0
122.651 2.0
123.055 5.0
123.459 5.0
123.863 3.0
124.266 3.0
124.67 1.0
125.074 0.0
125.478 0.0
125.881 1.0
126.285 2.0
126.689 3.0
127.093 4.0
127.497 2.0
127.9 5.0
128.304 3.0
128.708 4.0
129.112 7.0
129.515 1.0
129.919 4.0
129.998 1.0