File: XRD_data/W6725/XRD_2ThetaOmega/W6725_absolute_2th-om_58-72deg-20min_5.xy
58.0028 307.0
58.0496 311.0
58.0964 274.0
58.1432 287.0
58.1899 305.0
58.2367 248.0
58.2835 273.0
58.3303 287.0
58.377 265.0
58.4238 275.0
58.4706 270.0
58.5174 289.0
58.5642 302.0
58.6109 265.0
58.6577 259.0
58.7045 285.0
58.7513 267.0
58.798 282.0
58.8448 295.0
58.8916 282.0
58.9384 292.0
58.9851 287.0
59.0319 289.0
59.0787 312.0
59.1255 288.0
59.1722 276.0
59.219 281.0
59.2658 274.0
59.3126 289.0
59.3594 245.0
59.4061 275.0
59.4529 308.0
59.4997 278.0
59.5465 299.0
59.5932 306.0
59.64 286.0
59.6868 275.0
59.7336 316.0
59.7803 306.0
59.8271 282.0
59.8739 275.0
59.9207 275.0
59.9674 298.0
60.0142 300.0
60.061 282.0
60.1078 292.0
60.1546 302.0
60.2013 333.0
60.2481 325.0
60.2949 306.0
60.3417 316.0
60.3884 342.0
60.4352 327.0
60.482 326.0
60.5288 293.0
60.5755 308.0
60.6223 362.0
60.6691 365.0
60.7159 426.0
60.7627 788.0
60.8094 2298.0
60.8562 1914.0
60.903 1277.0
60.9498 745.0
60.9965 474.0
61.0433 432.0
61.0901 417.0
61.1369 412.0
61.1836 392.0
61.2304 415.0
61.2772 432.0
61.324 426.0
61.3707 412.0
61.4175 448.0
61.4643 412.0
61.5111 431.0
61.5579 417.0
61.6046 409.0
61.6514 411.0
61.6982 413.0
61.745 361.0
61.7917 376.0
61.8385 365.0
61.8853 401.0
61.9321 375.0
61.9788 366.0
62.0256 361.0
62.0724 343.0
62.1192 392.0
62.166 389.0
62.2127 358.0
62.2595 376.0
62.3063 386.0
62.3531 380.0
62.3998 371.0
62.4466 358.0
62.4934 358.0
62.5402 374.0
62.5869 389.0
62.6337 369.0
62.6805 367.0
62.7273 423.0
62.774 418.0
62.8208 409.0
62.8676 429.0
62.9144 466.0
62.9612 461.0
63.0079 472.0
63.0547 488.0
63.1015 489.0
63.1483 459.0
63.195 535.0
63.2418 567.0
63.2886 567.0
63.3354 596.0
63.3821 649.0
63.4289 734.0
63.4757 732.0
63.5225 783.0
63.5693 925.0
63.616 970.0
63.6628 1079.0
63.7096 1265.0
63.7564 1457.0
63.8031 1670.0
63.8499 2063.0
63.8967 2404.0
63.9435 2964.0
63.9902 3520.0
64.037 4388.0
64.0838 5525.0
64.1306 6958.0
64.1773 8376.0
64.2241 10581.0
64.2709 12159.0
64.3177 13982.0
64.3645 15582.0
64.4112 16940.0
64.458 17469.0
64.5048 17104.0
64.5516 15696.0
64.5983 13865.0
64.6451 12051.0
64.6919 10480.0
64.7387 8611.0
64.7854 7180.0
64.8322 5970.0
64.879 5481.0
64.9258 7261.0
64.9725 6559.0
65.0193 3894.0
65.0661 2695.0
65.1129 2178.0
65.1597 1870.0
65.2064 1631.0
65.2532 1445.0
65.3 1330.0
65.3468 1221.0
65.3935 1199.0
65.4403 1283.0
65.4871 1677.0
65.5339 1384.0
65.5806 976.0
65.6274 919.0
65.6742 778.0
65.721 730.0
65.7678 701.0
65.8145 721.0
65.8613 658.0
65.9081 653.0
65.9549 643.0
66.0016 671.0
66.0484 669.0
66.0952 660.0
66.142 687.0
66.1887 695.0
66.2355 687.0
66.2823 681.0
66.3291 696.0
66.3758 670.0
66.4226 763.0
66.4694 734.0
66.5162 712.0
66.563 750.0
66.6097 726.0
66.6565 782.0
66.7033 770.0
66.7501 800.0
66.7968 806.0
66.8436 848.0
66.8904 937.0
66.9372 890.0
66.9839 939.0
67.0307 990.0
67.0775 990.0
67.1243 1014.0
67.1711 1140.0
67.2178 1155.0
67.2646 1203.0
67.3114 1277.0
67.3582 1390.0
67.4049 1465.0
67.4517 1592.0
67.4985 1725.0
67.5453 1890.0
67.592 2013.0
67.6388 2235.0
67.6856 2618.0
67.7324 3778.0
67.7791 5449.0
67.8259 7023.0
67.8727 6926.0
67.9195 7155.0
67.9663 9179.0
68.013 15152.0
68.0598 33388.0
68.1066 191014.0
68.1534 684705.0
68.2001 130559.0
68.2469 39043.0
68.2937 87609.0
68.3405 344756.0
68.3872 96556.0
68.434 20658.0
68.4808 10833.0
68.5276 7693.0
68.5743 5786.0
68.6211 4491.0
68.6679 3875.0
68.7147 3461.0
68.7615 3023.0
68.8082 2589.0
68.855 2238.0
68.9018 2149.0
68.9486 2007.0
68.9953 1778.0
69.0421 1794.0
69.0889 1625.0
69.1357 1561.0
69.1824 1502.0
69.2292 1471.0
69.276 1349.0
69.3228 1287.0
69.3696 1199.0
69.4163 1110.0
69.4631 1108.0
69.5099 1122.0
69.5567 1043.0
69.6034 952.0
69.6502 910.0
69.697 892.0
69.7438 912.0
69.7905 795.0
69.8373 846.0
69.8841 791.0
69.9309 675.0
69.9776 720.0
70.0244 740.0
70.0712 672.0
70.118 635.0
70.1648 594.0
70.2115 618.0
70.2583 583.0
70.3051 554.0
70.3519 561.0
70.3986 552.0
70.4454 543.0
70.4922 535.0
70.539 459.0
70.5857 456.0
70.6325 423.0
70.6793 443.0
70.7261 456.0
70.7729 448.0
70.8196 433.0
70.8664 438.0
70.9132 451.0
70.96 437.0
71.0067 429.0
71.0535 381.0
71.1003 439.0
71.1471 432.0
71.1938 375.0
71.2406 445.0
71.2874 354.0
71.3342 398.0
71.3809 381.0
71.4277 366.0
71.4745 351.0
71.5213 329.0
71.5681 398.0
71.6148 398.0
71.6616 370.0
71.7084 357.0
71.7552 339.0
71.8019 389.0
71.8487 345.0
71.8955 347.0
71.9423 333.0
71.989 325.0
71.9989 340.0