File: XRD_data/W6725/XRD_Phi/W6725_Cr2O3_phi_360deg_2h_5.xy
-143.8500 1446.0
-142.6500 2396.0
-141.4500 505.0
-140.2500 176.0
-139.0500 121.0
-137.8500 108.0
-136.6500 102.0
-135.4500 116.0
-134.2500 110.0
-133.0500 92.0
-131.8500 112.0
-130.6500 99.0
-129.4500 97.0
-128.2500 106.0
-127.0500 117.0
-125.8500 109.0
-124.6500 98.0
-123.4500 123.0
-122.2500 105.0
-121.0500 101.0
-119.8500 104.0
-118.6500 111.0
-117.4500 111.0
-116.2500 117.0
-115.0500 96.0
-113.8500 107.0
-112.6500 115.0
-111.4500 100.0
-110.2500 105.0
-109.0500 90.0
-107.8500 105.0
-106.6500 103.0
-105.4500 92.0
-104.2500 90.0
-103.0500 115.0
-101.8500 109.0
-100.6500 72.0
-99.4500 109.0
-98.2500 92.0
-97.0500 78.0
-95.8500 92.0
-94.6500 97.0
-93.4500 113.0
-92.2500 96.0
-91.0500 110.0
-89.8500 101.0
-88.6500 92.0
-87.4500 87.0
-86.2500 75.0
-85.0500 83.0
-83.8500 95.0
-82.6500 73.0
-81.4500 85.0
-80.2500 82.0
-79.0500 103.0
-77.8500 84.0
-76.6500 102.0
-75.4500 99.0
-74.2500 109.0
-73.0500 115.0
-71.8500 108.0
-70.6500 94.0
-69.4500 102.0
-68.2500 106.0
-67.0500 121.0
-65.8500 121.0
-64.6500 110.0
-63.4500 116.0
-62.2500 129.0
-61.0500 100.0
-59.8500 106.0
-58.6500 118.0
-57.4500 117.0
-56.2500 119.0
-55.0500 114.0
-53.8500 107.0
-52.6500 131.0
-51.4500 108.0
-50.2500 87.0
-49.0500 118.0
-47.8500 110.0
-46.6500 108.0
-45.4500 117.0
-44.2500 133.0
-43.0500 118.0
-41.8500 115.0
-40.6500 106.0
-39.4500 129.0
-38.2500 160.0
-37.0500 488.0
-35.8500 2153.0
-34.6500 1317.0
-33.4500 239.0
-32.2500 173.0
-31.0500 116.0
-29.8500 123.0
-28.6500 118.0
-27.4500 124.0
-26.2500 124.0
-25.0500 117.0
-23.8500 115.0
-22.6500 112.0
-21.4500 114.0
-20.2500 94.0
-19.0500 114.0
-17.8500 106.0
-16.6500 114.0
-15.4500 115.0
-14.2500 99.0
-13.0500 106.0
-11.8500 109.0
-10.6500 94.0
-9.4500 84.0
-8.2500 102.0
-7.0500 114.0
-5.8500 95.0
-4.6500 97.0
-3.4500 92.0
-2.2500 91.0
-1.0500 87.0
0.1500 86.0
1.3500 69.0
2.5500 78.0
3.7500 76.0
4.9500 58.0
6.1500 55.0
7.3500 44.0
8.5500 59.0
9.7500 68.0
10.9500 56.0
12.1500 39.0
13.3500 57.0
14.5500 65.0
15.7500 50.0
16.9500 47.0
18.1500 49.0
19.3500 61.0
20.5500 70.0
21.7500 58.0
22.9500 65.0
24.1500 75.0
25.3500 77.0
26.5500 72.0
27.7500 68.0
28.9500 73.0
30.1500 69.0
31.3500 81.0
32.5500 92.0
33.7500 103.0
34.9500 100.0
36.1500 93.0
37.3500 90.0
38.5500 101.0
39.7500 104.0
40.9500 114.0
42.1500 94.0
43.3500 104.0
44.5500 122.0
45.7500 114.0
46.9500 104.0
48.1500 111.0
49.3500 100.0
50.5500 106.0
51.7500 118.0
52.9500 113.0
54.1500 109.0
55.3500 106.0
56.5500 85.0
57.7500 105.0
58.9500 94.0
60.1500 103.0
61.3500 106.0
62.5500 98.0
63.7500 106.0
64.9500 92.0
66.1500 97.0
67.3500 117.0
68.5500 88.0
69.7500 107.0
70.9500 117.0
72.1500 116.0
73.3500 87.0
74.5500 95.0
75.7500 106.0
76.9500 102.0
78.1500 106.0
79.3500 107.0
80.5500 104.0
81.7500 94.0
82.9500 101.0
84.1500 99.0
85.3500 89.0
86.5500 92.0
87.7500 95.0
88.9500 110.0
90.1500 119.0
91.3500 99.0
92.5500 76.0
93.7500 110.0
94.9500 84.0
96.1500 101.0
97.3500 88.0
98.5500 89.0
99.7500 115.0
100.9500 109.0
102.1500 125.0
103.3500 112.0
104.5500 107.0
105.7500 107.0
106.9500 103.0
108.1500 106.0
109.3500 102.0
110.5500 108.0
111.7500 109.0
112.9500 87.0
114.1500 118.0
115.3500 86.0
116.5500 119.0
117.7500 117.0
118.9500 102.0
120.1500 97.0
121.3500 109.0
122.5500 129.0
123.7500 108.0
124.9500 105.0
126.1500 110.0
127.3500 130.0
128.5500 121.0
129.7500 107.0
130.9500 122.0
132.1500 116.0
133.3500 98.0
134.5500 113.0
135.7500 120.0
136.9500 103.0
138.1500 115.0
139.3500 116.0
140.5500 117.0
141.7500 139.0
142.9500 118.0
144.1500 116.0
145.3500 118.0
146.5500 119.0
147.7500 133.0
148.9500 121.0
150.1500 107.0
151.3500 114.0
152.5500 109.0
153.7500 108.0
154.9500 114.0
156.1500 106.0
157.3500 115.0
158.5500 117.0
159.7500 118.0
160.9500 136.0
162.1500 101.0
163.3500 121.0
164.5500 102.0
165.7500 106.0
166.9500 95.0
168.1500 104.0
169.3500 98.0
170.5500 112.0
171.7500 110.0
172.9500 94.0
174.1500 103.0
175.3500 91.0
176.5500 96.0
177.7500 85.0
178.9500 88.0
180.1500 88.0
181.3500 71.0
182.5500 82.0
183.7500 81.0
184.9500 72.0
186.1500 76.0
187.3500 77.0
188.5500 63.0
189.7500 71.0
190.9500 64.0
192.1500 60.0
193.3500 61.0
194.5500 62.0
195.7500 61.0
196.9500 53.0
198.1500 58.0
199.3500 62.0
200.5500 50.0
201.7500 59.0
202.9500 72.0
204.1500 76.0
205.3500 74.0
206.5500 69.0
207.7500 87.0
208.9500 75.0
210.1500 82.0
211.3500 82.0
212.5500 98.0
213.7500 109.0
214.9500 158.0
216.0700 420.0