File: XRD_data/W6725/XRD_Phi/W6725_Al2O3_phi_360deg_25min_3mm_active_4.xy
-216.135 67.000
-214.935 77.000
-213.735 53.000
-212.535 47.000
-211.335 60.000
-210.135 64.000
-208.935 67.000
-207.735 64.000
-206.535 65.000
-205.335 58.000
-204.135 57.000
-202.935 64.000
-201.735 61.000
-200.535 61.000
-199.335 73.000
-198.135 65.000
-196.935 69.000
-195.735 61.000
-194.535 67.000
-193.335 64.000
-192.135 71.000
-190.935 59.000
-189.735 68.000
-188.535 72.000
-187.335 56.000
-186.135 64.000
-184.935 57.000
-183.735 75.000
-182.535 54.000
-181.335 66.000
-180.135 43.000
-178.935 53.000
-177.735 44.000
-176.535 48.000
-175.335 37.000
-174.135 48.000
-172.935 55.000
-171.735 30.000
-170.535 32.000
-169.335 26.000
-168.135 28.000
-166.935 39.000
-165.735 33.000
-164.535 31.000
-163.335 34.000
-162.135 25.000
-160.935 30.000
-159.735 47.000
-158.535 33.000
-157.335 25.000
-156.135 22.000
-154.935 43.000
-153.735 33.000
-152.535 51.000
-151.335 28.000
-150.135 47.000
-148.935 42.000
-147.735 43.000
-146.535 63.000
-145.335 61.000
-144.135 59.000
-142.935 100.000
-141.735 85.000
-140.535 85.000
-139.335 68.000
-138.135 71.000
-136.935 53.000
-135.735 60.000
-134.535 65.000
-133.335 53.000
-132.135 61.000
-130.935 59.000
-129.735 62.000
-128.535 64.000
-127.335 77.000
-126.135 54.000
-124.935 69.000
-123.735 60.000
-122.535 51.000
-121.335 59.000
-120.135 54.000
-118.935 68.000
-117.735 67.000
-116.535 64.000
-115.335 53.000
-114.135 61.000
-112.935 60.000
-111.735 56.000
-110.535 65.000
-109.335 75.000
-108.135 42.000
-106.935 60.000
-105.735 57.000
-104.535 54.000
-103.335 59.000
-102.135 53.000
-100.935 58.000
-99.73500 58.000
-98.53500 52.000
-97.33500 52.000
-96.13500 49.000
-94.93500 60.000
-93.73500 49.000
-92.53500 54.000
-91.33500 59.000
-90.13500 58.000
-88.93500 55.000
-87.73500 58.000
-86.53500 58.000
-85.33500 60.000
-84.13500 57.000
-82.93500 71.000
-81.73500 61.000
-80.53500 49.000
-79.33500 57.000
-78.13500 69.000
-76.93500 59.000
-75.73500 53.000
-74.53500 54.000
-73.33500 55.000
-72.13500 81.000
-70.93500 58.000
-69.73500 58.000
-68.53500 62.000
-67.33500 54.000
-66.13500 50.000
-64.93500 55.000
-63.73500 64.000
-62.53500 62.000
-61.33500 55.000
-60.13500 76.000
-58.93500 70.000
-57.73500 67.000
-56.53500 57.000
-55.33500 73.000
-54.13500 73.000
-52.93500 68.000
-51.73500 73.000
-50.53500 64.000
-49.33500 66.000
-48.13500 78.000
-46.93500 60.000
-45.73500 59.000
-44.53500 79.000
-43.33500 54.000
-42.13500 74.000
-40.93500 62.000
-39.73500 90.000
-38.53500 91.000
-37.33500 106.000
-36.13500 147.000
-34.93500 86.000
-33.73500 93.000
-32.53500 62.000
-31.33500 69.000
-30.13500 72.000
-28.93500 76.000
-27.73500 60.000
-26.53500 61.000
-25.33500 69.000
-24.13500 69.000
-22.93500 75.000
-21.73500 64.000
-20.53500 73.000
-19.33500 64.000
-18.13500 65.000
-16.93500 82.000
-15.73500 64.000
-14.53500 69.000
-13.33500 79.000
-12.13500 61.000
-10.93500 66.000
-9.73500 66.000
-8.53500 43.000
-7.33500 59.000
-6.13500 57.000
-4.93500 62.000
-3.73500 49.000
-2.53500 46.000
-1.33500 39.000
-0.13500 54.000
1.06500 43.000
2.26500 42.000
3.46500 27.000
4.66500 46.000
5.86500 31.000
7.06500 27.000
8.26500 31.000
9.46500 36.000
10.66500 35.000
11.86500 33.000
13.06500 19.000
14.26500 32.000
15.46500 38.000
16.66500 35.000
17.86500 24.000
19.06500 38.000
20.26500 34.000
21.46500 32.000
22.66500 37.000
23.86500 35.000
25.06500 34.000
26.26500 41.000
27.46500 30.000
28.66500 42.000
29.86500 40.000
31.06500 39.000
32.26500 50.000
33.46500 58.000
34.66500 59.000
35.86500 61.000
37.06500 68.000
38.26500 66.000
39.46500 66.000
40.66500 50.000
41.86500 59.000
43.06500 55.000
44.26500 80.000
45.46500 66.000
46.66500 63.000
47.86500 58.000
49.06500 62.000
50.26500 52.000
51.46500 58.000
52.66500 50.000
53.86500 64.000
55.06500 64.000
56.26500 67.000
57.46500 64.000
58.66500 79.000
59.86500 47.000
61.06500 56.000
62.26500 65.000
63.46500 60.000
64.66500 62.000
65.86500 57.000
67.06500 37.000
68.26500 55.000
69.46500 58.000
70.66500 60.000
71.86500 53.000
73.06500 49.000
74.26500 65.000
75.46500 67.000
76.66500 56.000
77.86500 56.000
79.06500 69.000
80.26500 47.000
81.46500 46.000
82.66500 50.000
83.86500 58.000
85.06500 69.000
86.26500 70.000
87.46500 62.000
88.66500 69.000
89.86500 63.000
91.06500 56.000
92.26500 68.000
93.46500 48.000
94.66500 41.000
95.86500 64.000
97.06500 65.000
98.26500 58.000
99.46500 58.000
100.665 63.000
101.865 54.000
103.065 57.000
104.265 71.000
105.465 73.000
106.665 52.000
107.865 56.000
109.065 62.000
110.265 54.000
111.465 63.000
112.665 60.000
113.865 62.000
115.065 72.000
116.265 59.000
117.465 71.000
118.665 63.000
119.865 69.000
121.065 67.000
122.265 59.000
123.465 70.000
124.665 59.000
125.865 90.000
127.065 58.000
128.265 72.000
129.465 70.000
130.665 72.000
131.865 63.000
133.065 68.000
134.265 63.000
135.465 72.000
136.665 73.000
137.865 73.000
139.065 69.000
140.265 73.000
141.465 71.000
142.665 61.000
143.765 59.000